time (s)	energy (uJ)	charge (mC)	voltage (mV)	crossing#mod 255
1489.182349	59.901211	0.029189	2.052212	240
1490.220621	53.292583	0.029101	1.831325	241
1491.256400	55.618382	0.029164	1.907096	242
1492.289030	54.754738	0.029135	1.879361	243
1493.330828	49.816967	0.029171	1.707741	244
1494.368544	48.681976	0.029163	1.669333	245
1495.402976	58.422462	0.029117	2.006495	246
1496.438927	52.297207	0.029090	1.797754	247
1497.480512	50.340206	0.029131	1.728058	248
1498.508826	50.271217	0.029162	1.723877	249
1499.556659	56.052101	0.029110	1.925521	250
1500.576531	54.195084	0.029112	1.861578	251
1501.634737	51.074936	0.029142	1.752634	252
1502.650348	48.204758	0.029092	1.656963	253
1503.709779	50.926357	0.029163	1.746291	254
1504.719475	51.099876	0.029114	1.755135	255
1505.784578	49.552711	0.029128	1.701230	0
1506.796233	48.938862	0.029119	1.680665	1
1507.858260	50.412563	0.029155	1.729093	2
1508.868082	52.211220	0.029155	1.790819	3
1509.928038	47.868847	0.029120	1.643820	4
1510.943806	50.107674	0.029102	1.721813	5
1511.998520	51.161892	0.029121	1.756886	6
1513.018374	49.717308	0.029110	1.707940	7
1514.072502	47.110233	0.029159	1.615626	8
1515.094885	48.193317	0.029123	1.654825	9
1516.142196	49.114601	0.029111	1.687124	10
1517.166277	48.615063	0.029143	1.668130	11
1518.216212	48.852581	0.029115	1.677899	12
1519.241359	48.298920	0.029148	1.657044	13
1520.288692	46.272884	0.029159	1.586912	14
1521.314234	46.051254	0.029120	1.581430	15
1522.361103	48.949619	0.029116	1.681168	16
1523.385137	48.082199	0.029108	1.651882	17
1524.435316	45.751354	0.029131	1.570529	18
1525.456882	48.686749	0.029147	1.670364	19
1526.509222	46.162060	0.029117	1.585394	20
1527.529574	46.395962	0.029117	1.593447	21
1528.586064	45.404663	0.029133	1.558542	22
1529.600300	47.530247	0.029115	1.632477	23
1530.661228	43.158833	0.029109	1.482675	24
1531.688981	36.957466	0.029132	1.268632	25
1532.732546	46.443474	0.029110	1.595471	26
1533.744658	46.031723	0.029107	1.581470	27
1534.806443	44.389328	0.029146	1.523015	28
1535.818334	45.704384	0.029149	1.567948	29
1536.877082	40.332748	0.029122	1.384982	30
1537.894146	42.849262	0.029114	1.471764	31
1538.947287	43.644001	0.029130	1.498230	32
1539.970640	43.005577	0.029140	1.475848	33
1541.016743	44.285992	0.029115	1.521094	34
1542.045000	44.165131	0.029055	1.520078	35
1543.086796	41.874352	0.029151	1.436482	36
1544.120826	42.869007	0.029124	1.471955	37
1545.158297	44.021221	0.029102	1.512665	38
1546.195241	44.176048	0.029107	1.517723	39
1547.229229	42.214783	0.029152	1.448074	40
1548.268610	41.925663	0.029098	1.440827	41
1549.303751	40.420097	0.029133	1.387422	42
1550.341455	41.271267	0.029140	1.416287	43
1551.374774	39.170238	0.029136	1.344393	44
1552.413548	41.819702	0.029140	1.435136	45
1553.448674	41.966030	0.029095	1.442369	46
1554.484970	41.930561	0.029104	1.440709	47
1555.522571	39.769970	0.029142	1.364678	48
1556.557123	41.500511	0.029134	1.424447	49
1557.593004	41.162373	0.029115	1.413794	50
1558.630897	41.171936	0.029097	1.414992	51
1559.666925	40.742519	0.029104	1.399901	52
1560.702465	40.354004	0.029126	1.385507	53
1561.743430	38.609341	0.029109	1.326351	54
1562.772354	41.221378	0.029124	1.415377	55
1563.817175	38.649723	0.029104	1.327965	56
1564.841279	40.007214	0.029076	1.375974	57
1565.893126	38.985275	0.029104	1.339538	58
1566.912628	39.699211	0.029086	1.364909	59
1567.968858	38.119198	0.029105	1.309728	60
1568.982968	39.607639	0.029131	1.359628	61
1570.042609	37.996250	0.029116	1.304983	62
1571.054519	40.162090	0.029121	1.379168	63
1572.116463	36.881050	0.029103	1.267277	64
1573.128446	38.312405	0.029115	1.315910	65
1574.186955	37.482784	0.029145	1.286078	66
1575.201615	38.846611	0.029099	1.334992	67
1576.258757	37.511826	0.029134	1.287547	68
1577.275553	37.801533	0.029088	1.299555	69
1578.332116	36.856720	0.029174	1.263348	70
1579.349251	37.586838	0.029117	1.290893	71
1580.403557	36.580765	0.029109	1.256695	72
1581.421725	37.601181	0.029110	1.291681	73
1582.475832	37.295692	0.029113	1.281073	74
1583.494604	35.449329	0.029100	1.218182	75
1584.550068	35.665817	0.029134	1.224193	76
1585.565793	37.564152	0.029095	1.291073	77
1586.621955	35.968529	0.029110	1.235598	78
1587.636969	37.053986	0.029095	1.273531	79
1588.698760	34.700630	0.029103	1.192330	80
1589.709303	37.128342	0.029086	1.276486	81
1590.768708	35.770920	0.029116	1.228576	82
1591.780584	36.799591	0.029130	1.263282	83
1592.841175	35.058353	0.029092	1.205085	84
1593.853945	36.784977	0.029085	1.264739	85
1594.913931	33.544312	0.029138	1.151215	86
1595.928938	36.466751	0.029104	1.252977	87
1596.983125	33.872959	0.029096	1.164184	88
1598.002995	36.605293	0.029081	1.258716	89
1599.052745	33.278214	0.029070	1.144753	90
1600.079523	32.843887	0.029099	1.128712	91
1601.122151	33.661064	0.029116	1.156096	92
1602.154215	35.939533	0.029097	1.235165	93
1603.194589	31.902315	0.029126	1.095312	94
1604.227594	35.438278	0.029094	1.218082	95
1605.263527	33.255981	0.029092	1.143147	96
1606.302255	35.089649	0.029080	1.206663	97
1607.337966	32.738453	0.029073	1.126074	98
1608.372608	35.473236	0.029093	1.219315	99
1609.410611	32.017159	0.029129	1.099165	100
1610.446821	33.805672	0.029092	1.162030	101
1611.482290	32.623116	0.029089	1.121500	102
1612.517645	34.855450	0.029092	1.198107	103
1613.557274	31.149191	0.029130	1.069323	104
1614.591495	31.481535	0.029191	1.078460	105
1615.629201	30.988897	0.029124	1.064035	106
1616.660954	34.527775	0.029099	1.186549	107
1617.703247	30.604559	0.029107	1.051436	108
1618.733466	33.731503	0.029124	1.158190	109
1619.776422	30.505886	0.029103	1.048201	110
1620.802969	34.312588	0.029098	1.179198	111
1621.849909	31.615435	0.029105	1.086236	112
1622.871717	34.521404	0.029097	1.186435	113
